Listing of data for N-SF66 from catalog SCHOTT.AGF

         
Index at d-line  :   1.92286009
Abbe at d-line   :  20.87974722
Delta P gF       :   0.03070000
Density in g/cc  :   3.99600000
Reference Temp   :  20.00000000
Melt Frequency   : 0
Relative Cost    :   3.14440000
CR               :   1.00000000
FR               :   0.00000000
SR               :   1.00000000
AR               :   1.00000000
PR               :   1.00000000
Status           : Preferred
Exclude Sub.     : No
Ignore expansion : No

Dispersion Formula:     Sellmeier 1
 K1        :    2.024597600E+00
 L1        :    1.470532250E-02
 K2        :    4.701871960E-01
 L2        :    6.929982760E-02
 K3        :    2.599704330E+00
 L3        :    1.618176010E+02
 Lambda min:   0.39000000
 Lambda max:   2.50000000

Thermal data:
 D0             : -4.30000000E-06
 D1             : 1.15000000E-08
 D2             : 4.31000000E-11
 E0             : 9.62000000E-07
 E1             : 1.62000000E-09
 Ltk            : 3.22000000E-01
 Tce -30 to 70 c:   5.90000000

Transmission data:
    Wavelength   Transmission      Thickness
      0.390000       0.020000      25.000000
      0.400000       0.180000      25.000000
      0.405000       0.270000      25.000000
      0.420000       0.500000      25.000000
      0.436000       0.630000      25.000000
      0.460000       0.740000      25.000000
      0.500000       0.830000      25.000000
      0.546000       0.910000      25.000000
      0.580000       0.940000      25.000000
      0.620000       0.958000      25.000000
      0.660000       0.968000      25.000000
      0.700000       0.977000      25.000000
      1.060000       0.991000      25.000000
      1.530000       0.973000      25.000000
      1.970000       0.873000      25.000000
      2.325000       0.640000      25.000000
      2.500000       0.560000      25.000000